# E (eV)   ldos(E)   pdos(E)    pdos(E)    pdos(E)   
  -6.613  0.114E-06  0.379E-07  0.379E-07  0.379E-07
  -6.513  0.962E-05  0.321E-05  0.321E-05  0.321E-05
  -6.413  0.318E-03  0.106E-03  0.106E-03  0.106E-03
  -6.313  0.437E-02  0.146E-02  0.146E-02  0.146E-02
  -6.213  0.282E-01  0.940E-02  0.940E-02  0.940E-02
  -6.113  0.102E+00  0.340E-01  0.340E-01  0.340E-01
  -6.013  0.267E+00  0.889E-01  0.889E-01  0.889E-01
  -5.913  0.580E+00  0.193E+00  0.193E+00  0.193E+00
  -5.813  0.888E+00  0.296E+00  0.296E+00  0.296E+00
  -5.713  0.714E+00  0.238E+00  0.238E+00  0.238E+00
  -5.613  0.249E+00  0.831E-01  0.831E-01  0.831E-01
  -5.513  0.341E-01  0.114E-01  0.114E-01  0.114E-01
  -5.413  0.172E-02  0.574E-03  0.574E-03  0.574E-03
  -5.313  0.313E-04  0.104E-04  0.104E-04  0.104E-04
  -5.213  0.200E-06  0.668E-07  0.668E-07  0.668E-07
  -5.113  0.447E-09  0.149E-09  0.149E-09  0.149E-09
  -5.013  0.339E-12  0.113E-12  0.113E-12  0.113E-12
  -4.913  0.000E+00  0.000E+00  0.000E+00  0.000E+00
  -4.813  0.000E+00  0.000E+00  0.000E+00  0.000E+00
  -4.713  0.000E+00  0.000E+00  0.000E+00  0.000E+00
  -4.613  0.000E+00  0.000E+00  0.000E+00  0.000E+00
  -4.513  0.000E+00  0.000E+00  0.000E+00  0.000E+00
  -4.413  0.000E+00  0.000E+00  0.000E+00  0.000E+00
  -4.313  0.000E+00  0.000E+00  0.000E+00  0.000E+00
  -4.213  0.000E+00  0.000E+00  0.000E+00  0.000E+00
  -4.113  0.000E+00  0.000E+00  0.000E+00  0.000E+00
  -4.013  0.274E-14  0.913E-15  0.913E-15  0.913E-15
  -3.913  0.327E-11  0.109E-11  0.109E-11  0.109E-11
  -3.813  0.138E-08  0.458E-09  0.458E-09  0.458E-09
  -3.713  0.215E-06  0.715E-07  0.715E-07  0.715E-07
  -3.613  0.128E-04  0.426E-05  0.426E-05  0.426E-05
  -3.513  0.301E-03  0.100E-03  0.100E-03  0.100E-03
  -3.413  0.289E-02  0.965E-03  0.965E-03  0.965E-03
  -3.313  0.122E-01  0.405E-02  0.405E-02  0.405E-02
  -3.213  0.256E-01  0.852E-02  0.852E-02  0.852E-02
  -3.113  0.338E-01  0.113E-01  0.113E-01  0.113E-01
  -3.013  0.414E-01  0.138E-01  0.138E-01  0.138E-01
  -2.913  0.633E-01  0.211E-01  0.211E-01  0.211E-01
  -2.813  0.105E+00  0.350E-01  0.350E-01  0.350E-01
  -2.713  0.147E+00  0.489E-01  0.489E-01  0.489E-01
  -2.613  0.133E+00  0.444E-01  0.444E-01  0.444E-01
  -2.513  0.610E-01  0.203E-01  0.203E-01  0.203E-01
  -2.413  0.118E-01  0.394E-02  0.394E-02  0.394E-02
  -2.313  0.892E-03  0.297E-03  0.297E-03  0.297E-03
  -2.213  0.249E-04  0.831E-05  0.831E-05  0.831E-05
  -2.113  0.253E-06  0.843E-07  0.843E-07  0.843E-07
  -2.013  0.916E-09  0.305E-09  0.305E-09  0.305E-09
  -1.913  0.117E-11  0.391E-12  0.391E-12  0.391E-12
  -1.813  0.116E-15  0.385E-16  0.385E-16  0.385E-16
  -1.713  0.000E+00  0.000E+00  0.000E+00  0.000E+00
  -1.613  0.000E+00  0.000E+00  0.000E+00  0.000E+00
  -1.513  0.000E+00  0.000E+00  0.000E+00  0.000E+00
  -1.413  0.000E+00  0.000E+00  0.000E+00  0.000E+00
  -1.313  0.000E+00  0.000E+00  0.000E+00  0.000E+00
  -1.213  0.000E+00  0.000E+00  0.000E+00  0.000E+00
  -1.113  0.000E+00  0.000E+00  0.000E+00  0.000E+00
  -1.013  0.000E+00  0.000E+00  0.000E+00  0.000E+00
  -0.913  0.000E+00  0.000E+00  0.000E+00  0.000E+00
  -0.813  0.000E+00  0.000E+00  0.000E+00  0.000E+00
  -0.713  0.000E+00  0.000E+00  0.000E+00  0.000E+00
  -0.613  0.000E+00  0.000E+00  0.000E+00  0.000E+00
  -0.513  0.000E+00  0.000E+00  0.000E+00  0.000E+00
  -0.413  0.000E+00  0.000E+00  0.000E+00  0.000E+00
  -0.313  0.000E+00  0.000E+00  0.000E+00  0.000E+00
  -0.213  0.000E+00  0.000E+00  0.000E+00  0.000E+00
  -0.113  0.186E-12  0.621E-13  0.621E-13  0.621E-13
  -0.013  0.146E-09  0.487E-10  0.487E-10  0.487E-10
   0.087  0.415E-07  0.138E-07  0.138E-07  0.138E-07
   0.187  0.442E-05  0.147E-05  0.147E-05  0.147E-05
   0.287  0.181E-03  0.605E-04  0.605E-04  0.605E-04
   0.387  0.298E-02  0.995E-03  0.995E-03  0.995E-03
   0.487  0.209E-01  0.696E-02  0.696E-02  0.696E-02
   0.587  0.712E-01  0.237E-01  0.237E-01  0.237E-01
   0.687  0.141E+00  0.471E-01  0.471E-01  0.471E-01
   0.787  0.177E+00  0.590E-01  0.590E-01  0.590E-01
   0.887  0.143E+00  0.478E-01  0.478E-01  0.478E-01
   0.987  0.105E+00  0.351E-01  0.351E-01  0.351E-01
   1.087  0.810E-01  0.270E-01  0.270E-01  0.270E-01
   1.187  0.521E-01  0.174E-01  0.174E-01  0.174E-01
   1.287  0.528E-01  0.176E-01  0.176E-01  0.176E-01
   1.387  0.505E-01  0.168E-01  0.168E-01  0.168E-01
   1.487  0.297E-01  0.991E-02  0.991E-02  0.991E-02
   1.587  0.249E-01  0.831E-02  0.831E-02  0.831E-02
   1.687  0.323E-01  0.108E-01  0.108E-01  0.108E-01
   1.787  0.262E-01  0.872E-02  0.872E-02  0.872E-02
   1.887  0.151E-01  0.504E-02  0.504E-02  0.504E-02
   1.987  0.134E-01  0.448E-02  0.448E-02  0.448E-02
   2.087  0.195E-01  0.651E-02  0.651E-02  0.651E-02
   2.187  0.311E-01  0.104E-01  0.104E-01  0.104E-01
   2.287  0.905E-01  0.302E-01  0.302E-01  0.302E-01
   2.387  0.248E+00  0.826E-01  0.826E-01  0.826E-01
   2.487  0.433E+00  0.144E+00  0.144E+00  0.144E+00
   2.587  0.469E+00  0.156E+00  0.156E+00  0.156E+00
   2.687  0.418E+00  0.139E+00  0.139E+00  0.139E+00
   2.787  0.429E+00  0.143E+00  0.143E+00  0.143E+00
   2.887  0.450E+00  0.150E+00  0.150E+00  0.150E+00
   2.987  0.466E+00  0.155E+00  0.155E+00  0.155E+00
   3.087  0.499E+00  0.166E+00  0.166E+00  0.166E+00
   3.187  0.512E+00  0.171E+00  0.171E+00  0.171E+00
   3.287  0.494E+00  0.165E+00  0.165E+00  0.165E+00
   3.387  0.482E+00  0.161E+00  0.161E+00  0.161E+00
   3.487  0.431E+00  0.144E+00  0.144E+00  0.144E+00
   3.587  0.391E+00  0.130E+00  0.130E+00  0.130E+00
   3.687  0.390E+00  0.130E+00  0.130E+00  0.130E+00
   3.787  0.380E+00  0.127E+00  0.127E+00  0.127E+00
   3.887  0.328E+00  0.109E+00  0.109E+00  0.109E+00
   3.987  0.287E+00  0.956E-01  0.956E-01  0.956E-01
   4.087  0.263E+00  0.878E-01  0.878E-01  0.878E-01
   4.187  0.197E+00  0.656E-01  0.656E-01  0.656E-01
   4.287  0.131E+00  0.437E-01  0.437E-01  0.437E-01
   4.387  0.101E+00  0.338E-01  0.338E-01  0.338E-01
   4.487  0.720E-01  0.240E-01  0.240E-01  0.240E-01
   4.587  0.470E-01  0.157E-01  0.157E-01  0.157E-01
   4.687  0.294E-01  0.979E-02  0.979E-02  0.979E-02
   4.787  0.134E-01  0.447E-02  0.447E-02  0.447E-02
   4.887  0.397E-02  0.132E-02  0.132E-02  0.132E-02
   4.987  0.635E-03  0.212E-03  0.212E-03  0.212E-03
   5.087  0.454E-04  0.151E-04  0.151E-04  0.151E-04
   5.187  0.129E-05  0.430E-06  0.430E-06  0.430E-06
   5.287  0.137E-07  0.457E-08  0.457E-08  0.457E-08
   5.387  0.530E-10  0.177E-10  0.177E-10  0.177E-10
   5.487  0.168E-10  0.560E-11  0.560E-11  0.560E-11
   5.587  0.488E-08  0.163E-08  0.163E-08  0.163E-08
   5.687  0.483E-06  0.161E-06  0.161E-06  0.161E-06
   5.787  0.162E-04  0.541E-05  0.541E-05  0.541E-05
   5.887  0.185E-03  0.618E-04  0.618E-04  0.618E-04
   5.987  0.736E-03  0.245E-03  0.245E-03  0.245E-03
   6.087  0.126E-02  0.421E-03  0.421E-03  0.421E-03
   6.187  0.233E-02  0.775E-03  0.775E-03  0.775E-03
   6.287  0.455E-02  0.152E-02  0.152E-02  0.152E-02
   6.387  0.527E-02  0.176E-02  0.176E-02  0.176E-02
   6.487  0.536E-02  0.179E-02  0.179E-02  0.179E-02
   6.587  0.124E-01  0.412E-02  0.412E-02  0.412E-02
   6.687  0.371E-01  0.124E-01  0.124E-01  0.124E-01
   6.787  0.899E-01  0.300E-01  0.300E-01  0.300E-01
   6.887  0.124E+00  0.413E-01  0.413E-01  0.413E-01
   6.987  0.927E-01  0.309E-01  0.309E-01  0.309E-01
   7.087  0.755E-01  0.252E-01  0.252E-01  0.252E-01
   7.187  0.128E+00  0.428E-01  0.428E-01  0.428E-01
   7.287  0.169E+00  0.564E-01  0.564E-01  0.564E-01
   7.387  0.151E+00  0.504E-01  0.504E-01  0.504E-01
   7.487  0.183E+00  0.611E-01  0.611E-01  0.611E-01
   7.587  0.364E+00  0.121E+00  0.121E+00  0.121E+00
   7.687  0.526E+00  0.175E+00  0.175E+00  0.175E+00
   7.787  0.557E+00  0.186E+00  0.186E+00  0.186E+00
   7.887  0.557E+00  0.186E+00  0.186E+00  0.186E+00
   7.987  0.495E+00  0.165E+00  0.165E+00  0.165E+00
   8.087  0.397E+00  0.132E+00  0.132E+00  0.132E+00
   8.187  0.397E+00  0.132E+00  0.132E+00  0.132E+00
   8.287  0.444E+00  0.148E+00  0.148E+00  0.148E+00
   8.387  0.387E+00  0.129E+00  0.129E+00  0.129E+00
   8.487  0.286E+00  0.952E-01  0.952E-01  0.952E-01
   8.587  0.301E+00  0.100E+00  0.100E+00  0.100E+00
   8.687  0.346E+00  0.115E+00  0.115E+00  0.115E+00
   8.787  0.388E+00  0.129E+00  0.129E+00  0.129E+00
   8.887  0.412E+00  0.137E+00  0.137E+00  0.137E+00
   8.987  0.349E+00  0.116E+00  0.116E+00  0.116E+00
   9.087  0.332E+00  0.111E+00  0.111E+00  0.111E+00
   9.187  0.351E+00  0.117E+00  0.117E+00  0.117E+00
   9.287  0.538E+00  0.179E+00  0.179E+00  0.179E+00
   9.387  0.737E+00  0.246E+00  0.246E+00  0.246E+00
   9.487  0.767E+00  0.256E+00  0.256E+00  0.256E+00
   9.587  0.811E+00  0.270E+00  0.270E+00  0.270E+00
   9.687  0.681E+00  0.227E+00  0.227E+00  0.227E+00
   9.787  0.446E+00  0.149E+00  0.149E+00  0.149E+00
   9.887  0.268E+00  0.894E-01  0.894E-01  0.894E-01
   9.987  0.133E+00  0.443E-01  0.443E-01  0.443E-01
  10.087  0.448E-01  0.149E-01  0.149E-01  0.149E-01
  10.187  0.851E-02  0.284E-02  0.284E-02  0.284E-02
  10.287  0.772E-03  0.257E-03  0.257E-03  0.257E-03
  10.387  0.290E-04  0.967E-05  0.967E-05  0.967E-05
  10.487  0.407E-06  0.136E-06  0.136E-06  0.136E-06
