# E (eV)   ldos(E)   pdos(E)    pdos(E)    pdos(E)    pdos(E)    pdos(E)   
  -6.613  0.221E-07  0.103E-11  0.737E-08  0.737E-08  0.103E-11  0.737E-08
  -6.513  0.197E-05  0.109E-09  0.658E-06  0.658E-06  0.108E-09  0.658E-06
  -6.413  0.703E-04  0.468E-08  0.234E-04  0.234E-04  0.467E-08  0.234E-04
  -6.313  0.108E-02  0.879E-07  0.362E-03  0.362E-03  0.878E-07  0.362E-03
  -6.213  0.831E-02  0.798E-06  0.277E-02  0.277E-02  0.798E-06  0.277E-02
  -6.113  0.389E-01  0.400E-05  0.130E-01  0.130E-01  0.400E-05  0.130E-01
  -6.013  0.141E+00  0.126E-04  0.469E-01  0.469E-01  0.126E-04  0.469E-01
  -5.913  0.403E+00  0.261E-04  0.134E+00  0.134E+00  0.261E-04  0.134E+00
  -5.813  0.721E+00  0.329E-04  0.240E+00  0.240E+00  0.329E-04  0.240E+00
  -5.713  0.628E+00  0.213E-04  0.209E+00  0.209E+00  0.213E-04  0.209E+00
  -5.613  0.229E+00  0.607E-05  0.762E-01  0.762E-01  0.607E-05  0.762E-01
  -5.513  0.320E-01  0.694E-06  0.107E-01  0.107E-01  0.694E-06  0.107E-01
  -5.413  0.165E-02  0.301E-07  0.550E-03  0.550E-03  0.301E-07  0.550E-03
  -5.313  0.303E-04  0.476E-09  0.101E-04  0.101E-04  0.476E-09  0.101E-04
  -5.213  0.196E-06  0.270E-11  0.652E-07  0.652E-07  0.270E-11  0.652E-07
  -5.113  0.440E-09  0.540E-14  0.147E-09  0.147E-09  0.540E-14  0.147E-09
  -5.013  0.336E-12  0.346E-17  0.112E-12  0.112E-12  0.347E-17  0.112E-12
  -4.913  0.000E+00  0.000E+00  0.000E+00  0.000E+00  0.000E+00  0.000E+00
  -4.813  0.000E+00  0.000E+00  0.000E+00  0.000E+00  0.000E+00  0.000E+00
  -4.713  0.000E+00  0.000E+00  0.000E+00  0.000E+00  0.000E+00  0.000E+00
  -4.613  0.000E+00  0.000E+00  0.000E+00  0.000E+00  0.000E+00  0.000E+00
  -4.513  0.000E+00  0.000E+00  0.000E+00  0.000E+00  0.000E+00  0.000E+00
  -4.413  0.000E+00  0.000E+00  0.000E+00  0.000E+00  0.000E+00  0.000E+00
  -4.313  0.000E+00  0.000E+00  0.000E+00  0.000E+00  0.000E+00  0.000E+00
  -4.213  0.000E+00  0.000E+00  0.000E+00  0.000E+00  0.000E+00  0.000E+00
  -4.113  0.000E+00  0.000E+00  0.000E+00  0.000E+00  0.000E+00  0.000E+00
  -4.013  0.632E-11  0.458E-13  0.206E-11  0.206E-11  0.504E-13  0.210E-11
  -3.913  0.753E-08  0.799E-10  0.244E-08  0.244E-08  0.859E-10  0.248E-08
  -3.813  0.315E-05  0.440E-07  0.102E-05  0.102E-05  0.469E-07  0.103E-05
  -3.713  0.479E-03  0.880E-05  0.153E-03  0.153E-03  0.926E-05  0.155E-03
  -3.613  0.269E-01  0.648E-03  0.850E-02  0.850E-02  0.671E-03  0.857E-02
  -3.513  0.565E+00  0.181E-01  0.176E+00  0.176E+00  0.184E-01  0.177E+00
  -3.413  0.455E+01  0.211E+00  0.138E+01  0.138E+01  0.212E+00  0.138E+01
  -3.313  0.149E+02  0.126E+01  0.412E+01  0.412E+01  0.126E+01  0.412E+01
  -3.213  0.235E+02  0.436E+01  0.493E+01  0.493E+01  0.436E+01  0.492E+01
  -3.113  0.229E+02  0.740E+01  0.269E+01  0.269E+01  0.741E+01  0.269E+01
  -3.013  0.134E+02  0.507E+01  0.108E+01  0.108E+01  0.508E+01  0.108E+01
  -2.913  0.488E+01  0.131E+01  0.757E+00  0.757E+00  0.131E+01  0.759E+00
  -2.813  0.316E+01  0.144E+00  0.956E+00  0.956E+00  0.144E+00  0.958E+00
  -2.713  0.356E+01  0.220E-01  0.117E+01  0.117E+01  0.220E-01  0.117E+01
  -2.613  0.294E+01  0.834E-02  0.973E+00  0.973E+00  0.833E-02  0.973E+00
  -2.513  0.127E+01  0.222E-02  0.423E+00  0.423E+00  0.222E-02  0.422E+00
  -2.413  0.240E+00  0.286E-03  0.800E-01  0.800E-01  0.286E-03  0.799E-01
  -2.313  0.179E-01  0.155E-04  0.595E-02  0.595E-02  0.155E-04  0.595E-02
  -2.213  0.497E-03  0.329E-06  0.166E-03  0.166E-03  0.329E-06  0.165E-03
  -2.113  0.502E-05  0.262E-08  0.167E-05  0.167E-05  0.262E-08  0.167E-05
  -2.013  0.182E-07  0.759E-11  0.605E-08  0.605E-08  0.758E-11  0.605E-08
  -1.913  0.232E-10  0.786E-14  0.774E-11  0.774E-11  0.786E-14  0.774E-11
  -1.813  0.231E-14  0.904E-31  0.770E-15  0.770E-15  0.755E-31  0.769E-15
  -1.713  0.000E+00  0.000E+00  0.000E+00  0.000E+00  0.000E+00  0.000E+00
  -1.613  0.000E+00  0.000E+00  0.000E+00  0.000E+00  0.000E+00  0.000E+00
  -1.513  0.000E+00  0.000E+00  0.000E+00  0.000E+00  0.000E+00  0.000E+00
  -1.413  0.000E+00  0.000E+00  0.000E+00  0.000E+00  0.000E+00  0.000E+00
  -1.313  0.000E+00  0.000E+00  0.000E+00  0.000E+00  0.000E+00  0.000E+00
  -1.213  0.000E+00  0.000E+00  0.000E+00  0.000E+00  0.000E+00  0.000E+00
  -1.113  0.000E+00  0.000E+00  0.000E+00  0.000E+00  0.000E+00  0.000E+00
  -1.013  0.000E+00  0.000E+00  0.000E+00  0.000E+00  0.000E+00  0.000E+00
  -0.913  0.000E+00  0.000E+00  0.000E+00  0.000E+00  0.000E+00  0.000E+00
  -0.813  0.000E+00  0.000E+00  0.000E+00  0.000E+00  0.000E+00  0.000E+00
  -0.713  0.000E+00  0.000E+00  0.000E+00  0.000E+00  0.000E+00  0.000E+00
  -0.613  0.000E+00  0.000E+00  0.000E+00  0.000E+00  0.000E+00  0.000E+00
  -0.513  0.000E+00  0.000E+00  0.000E+00  0.000E+00  0.000E+00  0.000E+00
  -0.413  0.000E+00  0.000E+00  0.000E+00  0.000E+00  0.000E+00  0.000E+00
  -0.313  0.000E+00  0.000E+00  0.000E+00  0.000E+00  0.000E+00  0.000E+00
  -0.213  0.000E+00  0.000E+00  0.000E+00  0.000E+00  0.000E+00  0.000E+00
  -0.113  0.394E-15  0.364E-16  0.107E-15  0.107E-15  0.370E-16  0.106E-15
  -0.013  0.517E-12  0.770E-13  0.121E-12  0.121E-12  0.786E-13  0.120E-12
   0.087  0.247E-09  0.456E-10  0.518E-10  0.518E-10  0.465E-10  0.518E-10
   0.187  0.460E-07  0.103E-07  0.840E-08  0.840E-08  0.105E-07  0.843E-08
   0.287  0.336E-05  0.898E-06  0.516E-06  0.516E-06  0.912E-06  0.518E-06
   0.387  0.994E-04  0.306E-04  0.126E-04  0.126E-04  0.310E-04  0.126E-04
   0.487  0.128E-02  0.427E-03  0.141E-03  0.141E-03  0.431E-03  0.142E-03
   0.587  0.793E-02  0.262E-02  0.890E-03  0.890E-03  0.264E-02  0.891E-03
   0.687  0.247E-01  0.750E-02  0.324E-02  0.324E-02  0.752E-02  0.324E-02
   0.787  0.384E-01  0.980E-02  0.626E-02  0.626E-02  0.980E-02  0.627E-02
   0.887  0.355E-01  0.644E-02  0.755E-02  0.755E-02  0.643E-02  0.755E-02
   0.987  0.340E-01  0.405E-02  0.865E-02  0.865E-02  0.404E-02  0.865E-02
   1.087  0.313E-01  0.316E-02  0.834E-02  0.834E-02  0.315E-02  0.834E-02
   1.187  0.224E-01  0.176E-02  0.629E-02  0.629E-02  0.176E-02  0.629E-02
   1.287  0.230E-01  0.113E-02  0.691E-02  0.691E-02  0.113E-02  0.691E-02
   1.387  0.240E-01  0.113E-02  0.724E-02  0.724E-02  0.113E-02  0.724E-02
   1.487  0.196E-01  0.116E-02  0.577E-02  0.577E-02  0.116E-02  0.577E-02
   1.587  0.182E-01  0.987E-03  0.540E-02  0.540E-02  0.986E-03  0.540E-02
   1.687  0.187E-01  0.605E-03  0.582E-02  0.582E-02  0.605E-03  0.582E-02
   1.787  0.149E-01  0.351E-03  0.474E-02  0.474E-02  0.351E-03  0.474E-02
   1.887  0.111E-01  0.321E-03  0.347E-02  0.347E-02  0.321E-03  0.347E-02
   1.987  0.120E-01  0.402E-03  0.373E-02  0.373E-02  0.402E-03  0.373E-02
   2.087  0.156E-01  0.473E-03  0.490E-02  0.490E-02  0.473E-03  0.490E-02
   2.187  0.142E-01  0.616E-03  0.431E-02  0.431E-02  0.616E-03  0.431E-02
   2.287  0.135E-01  0.171E-02  0.335E-02  0.335E-02  0.171E-02  0.335E-02
   2.387  0.226E-01  0.466E-02  0.444E-02  0.444E-02  0.466E-02  0.444E-02
   2.487  0.382E-01  0.799E-02  0.739E-02  0.739E-02  0.799E-02  0.739E-02
   2.587  0.440E-01  0.825E-02  0.916E-02  0.916E-02  0.825E-02  0.915E-02
   2.687  0.410E-01  0.666E-02  0.925E-02  0.925E-02  0.666E-02  0.924E-02
   2.787  0.412E-01  0.601E-02  0.972E-02  0.972E-02  0.601E-02  0.972E-02
   2.887  0.420E-01  0.556E-02  0.103E-01  0.103E-01  0.556E-02  0.103E-01
   2.987  0.433E-01  0.473E-02  0.113E-01  0.113E-01  0.473E-02  0.113E-01
   3.087  0.485E-01  0.440E-02  0.132E-01  0.132E-01  0.440E-02  0.132E-01
   3.187  0.539E-01  0.461E-02  0.149E-01  0.149E-01  0.461E-02  0.149E-01
   3.287  0.583E-01  0.475E-02  0.163E-01  0.163E-01  0.475E-02  0.163E-01
   3.387  0.601E-01  0.481E-02  0.168E-01  0.168E-01  0.481E-02  0.168E-01
   3.487  0.573E-01  0.440E-02  0.162E-01  0.162E-01  0.440E-02  0.162E-01
   3.587  0.593E-01  0.411E-02  0.170E-01  0.170E-01  0.412E-02  0.170E-01
   3.687  0.646E-01  0.443E-02  0.186E-01  0.186E-01  0.443E-02  0.186E-01
   3.787  0.675E-01  0.466E-02  0.194E-01  0.194E-01  0.466E-02  0.194E-01
   3.887  0.651E-01  0.408E-02  0.190E-01  0.190E-01  0.408E-02  0.190E-01
   3.987  0.648E-01  0.373E-02  0.191E-01  0.191E-01  0.373E-02  0.191E-01
   4.087  0.648E-01  0.368E-02  0.191E-01  0.191E-01  0.368E-02  0.191E-01
   4.187  0.534E-01  0.265E-02  0.160E-01  0.160E-01  0.264E-02  0.160E-01
   4.287  0.419E-01  0.165E-02  0.129E-01  0.129E-01  0.165E-02  0.129E-01
   4.387  0.375E-01  0.129E-02  0.116E-01  0.116E-01  0.129E-02  0.116E-01
   4.487  0.302E-01  0.833E-03  0.952E-02  0.952E-02  0.833E-03  0.952E-02
   4.587  0.240E-01  0.468E-03  0.767E-02  0.767E-02  0.468E-03  0.767E-02
   4.687  0.178E-01  0.256E-03  0.577E-02  0.577E-02  0.256E-03  0.577E-02
   4.787  0.961E-02  0.911E-04  0.314E-02  0.314E-02  0.911E-04  0.314E-02
   4.887  0.331E-02  0.209E-04  0.109E-02  0.109E-02  0.209E-04  0.109E-02
   4.987  0.588E-03  0.292E-05  0.194E-03  0.194E-03  0.292E-05  0.194E-03
   5.087  0.448E-04  0.184E-06  0.148E-04  0.148E-04  0.184E-06  0.148E-04
   5.187  0.132E-05  0.436E-08  0.438E-06  0.438E-06  0.436E-08  0.438E-06
   5.287  0.144E-07  0.361E-10  0.479E-08  0.479E-08  0.360E-10  0.479E-08
   5.387  0.575E-10  0.805E-12  0.189E-10  0.189E-10  0.102E-12  0.189E-10
   5.487  0.559E-11  0.200E-11  0.119E-11  0.119E-11  0.278E-13  0.119E-11
   5.587  0.103E-08  0.996E-11  0.339E-09  0.339E-09  0.807E-11  0.339E-09
   5.687  0.102E-06  0.800E-09  0.335E-07  0.335E-07  0.799E-09  0.335E-07
   5.787  0.343E-05  0.268E-07  0.113E-05  0.113E-05  0.269E-07  0.113E-05
   5.887  0.392E-04  0.306E-06  0.129E-04  0.129E-04  0.307E-06  0.129E-04
   5.987  0.154E-03  0.119E-05  0.504E-04  0.504E-04  0.119E-05  0.504E-04
   6.087  0.232E-03  0.168E-05  0.762E-04  0.762E-04  0.168E-05  0.762E-04
   6.187  0.277E-03  0.136E-05  0.913E-04  0.913E-04  0.136E-05  0.913E-04
   6.287  0.413E-03  0.135E-05  0.137E-03  0.137E-03  0.135E-05  0.137E-03
   6.387  0.373E-03  0.799E-06  0.124E-03  0.124E-03  0.800E-06  0.124E-03
   6.487  0.200E-03  0.259E-06  0.665E-04  0.665E-04  0.259E-06  0.665E-04
   6.587  0.189E-03  0.194E-05  0.617E-04  0.617E-04  0.195E-05  0.616E-04
   6.687  0.692E-03  0.153E-04  0.220E-03  0.220E-03  0.153E-04  0.220E-03
   6.787  0.186E-02  0.446E-04  0.589E-03  0.589E-03  0.446E-04  0.589E-03
   6.887  0.227E-02  0.515E-04  0.721E-03  0.721E-03  0.515E-04  0.721E-03
   6.987  0.144E-02  0.318E-04  0.458E-03  0.458E-03  0.318E-04  0.459E-03
   7.087  0.120E-02  0.375E-04  0.375E-03  0.375E-03  0.375E-04  0.375E-03
   7.187  0.217E-02  0.100E-03  0.657E-03  0.657E-03  0.100E-03  0.657E-03
   7.287  0.314E-02  0.205E-03  0.911E-03  0.911E-03  0.205E-03  0.911E-03
   7.387  0.333E-02  0.344E-03  0.879E-03  0.879E-03  0.344E-03  0.880E-03
   7.487  0.406E-02  0.640E-03  0.925E-03  0.925E-03  0.641E-03  0.925E-03
   7.587  0.740E-02  0.135E-02  0.156E-02  0.156E-02  0.135E-02  0.156E-02
   7.687  0.109E-01  0.218E-02  0.218E-02  0.218E-02  0.219E-02  0.218E-02
   7.787  0.117E-01  0.258E-02  0.219E-02  0.219E-02  0.258E-02  0.219E-02
   7.887  0.108E-01  0.237E-02  0.203E-02  0.203E-02  0.237E-02  0.203E-02
   7.987  0.880E-02  0.183E-02  0.171E-02  0.171E-02  0.183E-02  0.171E-02
   8.087  0.696E-02  0.147E-02  0.134E-02  0.134E-02  0.147E-02  0.134E-02
   8.187  0.619E-02  0.125E-02  0.123E-02  0.123E-02  0.125E-02  0.123E-02
   8.287  0.582E-02  0.104E-02  0.125E-02  0.125E-02  0.104E-02  0.125E-02
   8.387  0.412E-02  0.675E-03  0.923E-03  0.923E-03  0.674E-03  0.924E-03
   8.487  0.237E-02  0.365E-03  0.547E-03  0.547E-03  0.364E-03  0.547E-03
   8.587  0.241E-02  0.385E-03  0.547E-03  0.547E-03  0.385E-03  0.547E-03
   8.687  0.335E-02  0.516E-03  0.772E-03  0.772E-03  0.516E-03  0.772E-03
   8.787  0.357E-02  0.422E-03  0.908E-03  0.908E-03  0.422E-03  0.908E-03
   8.887  0.306E-02  0.204E-03  0.883E-03  0.883E-03  0.204E-03  0.883E-03
   8.987  0.237E-02  0.806E-04  0.738E-03  0.738E-03  0.805E-04  0.738E-03
   9.087  0.204E-02  0.449E-04  0.652E-03  0.652E-03  0.446E-04  0.651E-03
   9.187  0.226E-02  0.509E-04  0.722E-03  0.722E-03  0.480E-04  0.717E-03
   9.287  0.382E-02  0.125E-03  0.120E-02  0.120E-02  0.115E-03  0.118E-02
   9.387  0.524E-02  0.238E-03  0.161E-02  0.161E-02  0.229E-03  0.156E-02
   9.487  0.558E-02  0.378E-03  0.163E-02  0.163E-02  0.371E-03  0.157E-02
   9.587  0.593E-02  0.502E-03  0.166E-02  0.166E-02  0.503E-03  0.161E-02
   9.687  0.497E-02  0.483E-03  0.134E-02  0.134E-02  0.511E-03  0.129E-02
   9.787  0.320E-02  0.378E-03  0.828E-03  0.828E-03  0.401E-03  0.770E-03
   9.887  0.181E-02  0.262E-03  0.433E-03  0.433E-03  0.268E-03  0.411E-03
   9.987  0.861E-03  0.143E-03  0.186E-03  0.186E-03  0.162E-03  0.185E-03
  10.087  0.306E-03  0.510E-04  0.612E-04  0.612E-04  0.729E-04  0.602E-04
  10.187  0.635E-04  0.996E-05  0.121E-04  0.121E-04  0.176E-04  0.116E-04
  10.287  0.611E-05  0.916E-06  0.114E-05  0.114E-05  0.185E-05  0.107E-05
  10.387  0.236E-06  0.347E-07  0.431E-07  0.431E-07  0.746E-07  0.402E-07
  10.487  0.333E-08  0.489E-09  0.602E-09  0.602E-09  0.107E-08  0.563E-09
