# E (eV)   ldos(E)   pdos(E)    pdos(E)    pdos(E)    pdos(E)    pdos(E)   
  -6.613  0.221E-07  0.102E-11  0.736E-08  0.736E-08  0.102E-11  0.736E-08
  -6.513  0.197E-05  0.108E-09  0.657E-06  0.657E-06  0.108E-09  0.657E-06
  -6.413  0.701E-04  0.466E-08  0.234E-04  0.234E-04  0.466E-08  0.234E-04
  -6.313  0.108E-02  0.876E-07  0.361E-03  0.361E-03  0.876E-07  0.361E-03
  -6.213  0.829E-02  0.796E-06  0.276E-02  0.276E-02  0.796E-06  0.276E-02
  -6.113  0.388E-01  0.399E-05  0.129E-01  0.129E-01  0.399E-05  0.129E-01
  -6.013  0.140E+00  0.125E-04  0.468E-01  0.468E-01  0.125E-04  0.468E-01
  -5.913  0.402E+00  0.260E-04  0.134E+00  0.134E+00  0.260E-04  0.134E+00
  -5.813  0.720E+00  0.328E-04  0.240E+00  0.240E+00  0.328E-04  0.240E+00
  -5.713  0.626E+00  0.212E-04  0.209E+00  0.209E+00  0.212E-04  0.209E+00
  -5.613  0.228E+00  0.605E-05  0.760E-01  0.760E-01  0.605E-05  0.760E-01
  -5.513  0.320E-01  0.692E-06  0.107E-01  0.107E-01  0.692E-06  0.107E-01
  -5.413  0.164E-02  0.300E-07  0.548E-03  0.548E-03  0.300E-07  0.548E-03
  -5.313  0.302E-04  0.475E-09  0.101E-04  0.101E-04  0.475E-09  0.101E-04
  -5.213  0.195E-06  0.269E-11  0.651E-07  0.651E-07  0.269E-11  0.651E-07
  -5.113  0.439E-09  0.538E-14  0.146E-09  0.146E-09  0.538E-14  0.146E-09
  -5.013  0.335E-12  0.346E-17  0.112E-12  0.112E-12  0.346E-17  0.112E-12
  -4.913  0.000E+00  0.000E+00  0.000E+00  0.000E+00  0.000E+00  0.000E+00
  -4.813  0.000E+00  0.000E+00  0.000E+00  0.000E+00  0.000E+00  0.000E+00
  -4.713  0.000E+00  0.000E+00  0.000E+00  0.000E+00  0.000E+00  0.000E+00
  -4.613  0.000E+00  0.000E+00  0.000E+00  0.000E+00  0.000E+00  0.000E+00
  -4.513  0.000E+00  0.000E+00  0.000E+00  0.000E+00  0.000E+00  0.000E+00
  -4.413  0.000E+00  0.000E+00  0.000E+00  0.000E+00  0.000E+00  0.000E+00
  -4.313  0.000E+00  0.000E+00  0.000E+00  0.000E+00  0.000E+00  0.000E+00
  -4.213  0.000E+00  0.000E+00  0.000E+00  0.000E+00  0.000E+00  0.000E+00
  -4.113  0.000E+00  0.000E+00  0.000E+00  0.000E+00  0.000E+00  0.000E+00
  -4.013  0.605E-11  0.473E-13  0.199E-11  0.199E-11  0.473E-13  0.199E-11
  -3.913  0.720E-08  0.815E-10  0.234E-08  0.234E-08  0.815E-10  0.234E-08
  -3.813  0.300E-05  0.446E-07  0.972E-06  0.972E-06  0.446E-07  0.972E-06
  -3.713  0.457E-03  0.885E-05  0.146E-03  0.146E-03  0.885E-05  0.146E-03
  -3.613  0.257E-01  0.644E-03  0.813E-02  0.813E-02  0.644E-03  0.813E-02
  -3.513  0.543E+00  0.177E-01  0.169E+00  0.169E+00  0.177E-01  0.169E+00
  -3.413  0.441E+01  0.203E+00  0.133E+01  0.133E+01  0.203E+00  0.133E+01
  -3.313  0.146E+02  0.120E+01  0.406E+01  0.406E+01  0.120E+01  0.406E+01
  -3.213  0.232E+02  0.423E+01  0.493E+01  0.493E+01  0.423E+01  0.493E+01
  -3.113  0.230E+02  0.739E+01  0.274E+01  0.274E+01  0.739E+01  0.274E+01
  -3.013  0.137E+02  0.520E+01  0.110E+01  0.110E+01  0.520E+01  0.110E+01
  -2.913  0.505E+01  0.137E+01  0.769E+00  0.769E+00  0.137E+01  0.769E+00
  -2.813  0.321E+01  0.154E+00  0.969E+00  0.969E+00  0.154E+00  0.969E+00
  -2.713  0.360E+01  0.226E-01  0.119E+01  0.119E+01  0.226E-01  0.119E+01
  -2.613  0.297E+01  0.845E-02  0.983E+00  0.983E+00  0.845E-02  0.983E+00
  -2.513  0.128E+01  0.225E-02  0.426E+00  0.426E+00  0.225E-02  0.426E+00
  -2.413  0.243E+00  0.289E-03  0.807E-01  0.807E-01  0.289E-03  0.807E-01
  -2.313  0.180E-01  0.157E-04  0.600E-02  0.600E-02  0.157E-04  0.600E-02
  -2.213  0.501E-03  0.333E-06  0.167E-03  0.167E-03  0.333E-06  0.167E-03
  -2.113  0.507E-05  0.264E-08  0.169E-05  0.169E-05  0.264E-08  0.169E-05
  -2.013  0.183E-07  0.767E-11  0.610E-08  0.610E-08  0.767E-11  0.610E-08
  -1.913  0.234E-10  0.794E-14  0.780E-11  0.780E-11  0.794E-14  0.780E-11
  -1.813  0.233E-14  0.528E-31  0.776E-15  0.776E-15  0.528E-31  0.776E-15
  -1.713  0.000E+00  0.000E+00  0.000E+00  0.000E+00  0.000E+00  0.000E+00
  -1.613  0.000E+00  0.000E+00  0.000E+00  0.000E+00  0.000E+00  0.000E+00
  -1.513  0.000E+00  0.000E+00  0.000E+00  0.000E+00  0.000E+00  0.000E+00
  -1.413  0.000E+00  0.000E+00  0.000E+00  0.000E+00  0.000E+00  0.000E+00
  -1.313  0.000E+00  0.000E+00  0.000E+00  0.000E+00  0.000E+00  0.000E+00
  -1.213  0.000E+00  0.000E+00  0.000E+00  0.000E+00  0.000E+00  0.000E+00
  -1.113  0.000E+00  0.000E+00  0.000E+00  0.000E+00  0.000E+00  0.000E+00
  -1.013  0.000E+00  0.000E+00  0.000E+00  0.000E+00  0.000E+00  0.000E+00
  -0.913  0.000E+00  0.000E+00  0.000E+00  0.000E+00  0.000E+00  0.000E+00
  -0.813  0.000E+00  0.000E+00  0.000E+00  0.000E+00  0.000E+00  0.000E+00
  -0.713  0.000E+00  0.000E+00  0.000E+00  0.000E+00  0.000E+00  0.000E+00
  -0.613  0.000E+00  0.000E+00  0.000E+00  0.000E+00  0.000E+00  0.000E+00
  -0.513  0.000E+00  0.000E+00  0.000E+00  0.000E+00  0.000E+00  0.000E+00
  -0.413  0.000E+00  0.000E+00  0.000E+00  0.000E+00  0.000E+00  0.000E+00
  -0.313  0.000E+00  0.000E+00  0.000E+00  0.000E+00  0.000E+00  0.000E+00
  -0.213  0.000E+00  0.000E+00  0.000E+00  0.000E+00  0.000E+00  0.000E+00
  -0.113  0.398E-15  0.372E-16  0.108E-15  0.108E-15  0.372E-16  0.108E-15
  -0.013  0.521E-12  0.789E-13  0.121E-12  0.121E-12  0.789E-13  0.121E-12
   0.087  0.249E-09  0.466E-10  0.521E-10  0.521E-10  0.466E-10  0.521E-10
   0.187  0.464E-07  0.105E-07  0.846E-08  0.846E-08  0.105E-07  0.846E-08
   0.287  0.338E-05  0.913E-06  0.519E-06  0.519E-06  0.913E-06  0.519E-06
   0.387  0.100E-03  0.310E-04  0.127E-04  0.127E-04  0.310E-04  0.127E-04
   0.487  0.129E-02  0.431E-03  0.142E-03  0.142E-03  0.431E-03  0.142E-03
   0.587  0.796E-02  0.264E-02  0.892E-03  0.892E-03  0.264E-02  0.892E-03
   0.687  0.248E-01  0.753E-02  0.324E-02  0.324E-02  0.753E-02  0.324E-02
   0.787  0.385E-01  0.982E-02  0.628E-02  0.628E-02  0.982E-02  0.628E-02
   0.887  0.356E-01  0.644E-02  0.756E-02  0.756E-02  0.644E-02  0.756E-02
   0.987  0.341E-01  0.405E-02  0.866E-02  0.866E-02  0.405E-02  0.866E-02
   1.087  0.314E-01  0.315E-02  0.835E-02  0.835E-02  0.315E-02  0.835E-02
   1.187  0.224E-01  0.176E-02  0.629E-02  0.629E-02  0.176E-02  0.629E-02
   1.287  0.230E-01  0.113E-02  0.691E-02  0.691E-02  0.113E-02  0.691E-02
   1.387  0.240E-01  0.113E-02  0.724E-02  0.724E-02  0.113E-02  0.724E-02
   1.487  0.196E-01  0.116E-02  0.577E-02  0.577E-02  0.116E-02  0.577E-02
   1.587  0.182E-01  0.987E-03  0.541E-02  0.541E-02  0.987E-03  0.541E-02
   1.687  0.187E-01  0.605E-03  0.582E-02  0.582E-02  0.605E-03  0.582E-02
   1.787  0.149E-01  0.351E-03  0.474E-02  0.474E-02  0.351E-03  0.474E-02
   1.887  0.111E-01  0.321E-03  0.348E-02  0.348E-02  0.321E-03  0.348E-02
   1.987  0.120E-01  0.403E-03  0.374E-02  0.374E-02  0.403E-03  0.374E-02
   2.087  0.156E-01  0.473E-03  0.490E-02  0.490E-02  0.473E-03  0.490E-02
   2.187  0.142E-01  0.616E-03  0.432E-02  0.432E-02  0.616E-03  0.432E-02
   2.287  0.135E-01  0.171E-02  0.335E-02  0.335E-02  0.171E-02  0.335E-02
   2.387  0.227E-01  0.466E-02  0.445E-02  0.445E-02  0.466E-02  0.445E-02
   2.487  0.382E-01  0.800E-02  0.739E-02  0.739E-02  0.800E-02  0.739E-02
   2.587  0.440E-01  0.826E-02  0.916E-02  0.916E-02  0.826E-02  0.916E-02
   2.687  0.411E-01  0.666E-02  0.925E-02  0.925E-02  0.666E-02  0.925E-02
   2.787  0.412E-01  0.602E-02  0.972E-02  0.972E-02  0.602E-02  0.972E-02
   2.887  0.420E-01  0.557E-02  0.103E-01  0.103E-01  0.557E-02  0.103E-01
   2.987  0.433E-01  0.473E-02  0.113E-01  0.113E-01  0.473E-02  0.113E-01
   3.087  0.486E-01  0.440E-02  0.133E-01  0.133E-01  0.440E-02  0.133E-01
   3.187  0.540E-01  0.461E-02  0.149E-01  0.149E-01  0.461E-02  0.149E-01
   3.287  0.583E-01  0.475E-02  0.163E-01  0.163E-01  0.475E-02  0.163E-01
   3.387  0.601E-01  0.482E-02  0.168E-01  0.168E-01  0.482E-02  0.168E-01
   3.487  0.574E-01  0.441E-02  0.162E-01  0.162E-01  0.441E-02  0.162E-01
   3.587  0.593E-01  0.412E-02  0.170E-01  0.170E-01  0.412E-02  0.170E-01
   3.687  0.647E-01  0.444E-02  0.186E-01  0.186E-01  0.444E-02  0.186E-01
   3.787  0.676E-01  0.467E-02  0.194E-01  0.194E-01  0.467E-02  0.194E-01
   3.887  0.652E-01  0.409E-02  0.190E-01  0.190E-01  0.409E-02  0.190E-01
   3.987  0.649E-01  0.374E-02  0.191E-01  0.191E-01  0.374E-02  0.191E-01
   4.087  0.649E-01  0.368E-02  0.192E-01  0.192E-01  0.368E-02  0.192E-01
   4.187  0.535E-01  0.265E-02  0.161E-01  0.161E-01  0.265E-02  0.161E-01
   4.287  0.419E-01  0.165E-02  0.129E-01  0.129E-01  0.165E-02  0.129E-01
   4.387  0.376E-01  0.129E-02  0.117E-01  0.117E-01  0.129E-02  0.117E-01
   4.487  0.303E-01  0.833E-03  0.953E-02  0.953E-02  0.833E-03  0.953E-02
   4.587  0.240E-01  0.468E-03  0.768E-02  0.768E-02  0.468E-03  0.768E-02
   4.687  0.178E-01  0.256E-03  0.577E-02  0.577E-02  0.256E-03  0.577E-02
   4.787  0.961E-02  0.911E-04  0.314E-02  0.314E-02  0.911E-04  0.314E-02
   4.887  0.331E-02  0.209E-04  0.109E-02  0.109E-02  0.209E-04  0.109E-02
   4.987  0.588E-03  0.292E-05  0.194E-03  0.194E-03  0.292E-05  0.194E-03
   5.087  0.448E-04  0.184E-06  0.148E-04  0.148E-04  0.184E-06  0.148E-04
   5.187  0.132E-05  0.436E-08  0.438E-06  0.438E-06  0.436E-08  0.438E-06
   5.287  0.145E-07  0.360E-10  0.479E-08  0.479E-08  0.360E-10  0.479E-08
   5.387  0.569E-10  0.102E-12  0.189E-10  0.189E-10  0.102E-12  0.189E-10
   5.487  0.362E-11  0.278E-13  0.119E-11  0.119E-11  0.278E-13  0.119E-11
   5.587  0.103E-08  0.808E-11  0.339E-09  0.339E-09  0.808E-11  0.339E-09
   5.687  0.102E-06  0.799E-09  0.335E-07  0.335E-07  0.799E-09  0.335E-07
   5.787  0.344E-05  0.269E-07  0.113E-05  0.113E-05  0.269E-07  0.113E-05
   5.887  0.392E-04  0.307E-06  0.129E-04  0.129E-04  0.307E-06  0.129E-04
   5.987  0.154E-03  0.119E-05  0.505E-04  0.505E-04  0.119E-05  0.505E-04
   6.087  0.232E-03  0.168E-05  0.763E-04  0.763E-04  0.168E-05  0.763E-04
   6.187  0.277E-03  0.136E-05  0.914E-04  0.914E-04  0.136E-05  0.914E-04
   6.287  0.414E-03  0.135E-05  0.137E-03  0.137E-03  0.135E-05  0.137E-03
   6.387  0.373E-03  0.800E-06  0.124E-03  0.124E-03  0.800E-06  0.124E-03
   6.487  0.200E-03  0.259E-06  0.666E-04  0.666E-04  0.259E-06  0.666E-04
   6.587  0.189E-03  0.195E-05  0.617E-04  0.617E-04  0.195E-05  0.617E-04
   6.687  0.692E-03  0.153E-04  0.221E-03  0.221E-03  0.153E-04  0.221E-03
   6.787  0.186E-02  0.446E-04  0.590E-03  0.590E-03  0.446E-04  0.590E-03
   6.887  0.227E-02  0.515E-04  0.721E-03  0.721E-03  0.515E-04  0.721E-03
   6.987  0.144E-02  0.318E-04  0.459E-03  0.459E-03  0.318E-04  0.459E-03
   7.087  0.120E-02  0.375E-04  0.375E-03  0.375E-03  0.375E-04  0.375E-03
   7.187  0.217E-02  0.100E-03  0.658E-03  0.658E-03  0.100E-03  0.658E-03
   7.287  0.314E-02  0.205E-03  0.911E-03  0.911E-03  0.205E-03  0.911E-03
   7.387  0.333E-02  0.344E-03  0.880E-03  0.880E-03  0.344E-03  0.880E-03
   7.487  0.406E-02  0.641E-03  0.925E-03  0.925E-03  0.641E-03  0.925E-03
   7.587  0.740E-02  0.135E-02  0.157E-02  0.157E-02  0.135E-02  0.157E-02
   7.687  0.109E-01  0.219E-02  0.218E-02  0.218E-02  0.219E-02  0.218E-02
   7.787  0.117E-01  0.259E-02  0.219E-02  0.219E-02  0.259E-02  0.219E-02
   7.887  0.108E-01  0.238E-02  0.203E-02  0.203E-02  0.238E-02  0.203E-02
   7.987  0.881E-02  0.183E-02  0.171E-02  0.171E-02  0.183E-02  0.171E-02
   8.087  0.696E-02  0.147E-02  0.134E-02  0.134E-02  0.147E-02  0.134E-02
   8.187  0.619E-02  0.125E-02  0.123E-02  0.123E-02  0.125E-02  0.123E-02
   8.287  0.583E-02  0.104E-02  0.125E-02  0.125E-02  0.104E-02  0.125E-02
   8.387  0.412E-02  0.675E-03  0.924E-03  0.924E-03  0.675E-03  0.924E-03
   8.487  0.237E-02  0.364E-03  0.547E-03  0.547E-03  0.364E-03  0.547E-03
   8.587  0.241E-02  0.385E-03  0.547E-03  0.547E-03  0.385E-03  0.547E-03
   8.687  0.335E-02  0.517E-03  0.773E-03  0.773E-03  0.517E-03  0.773E-03
   8.787  0.357E-02  0.422E-03  0.908E-03  0.908E-03  0.422E-03  0.908E-03
   8.887  0.306E-02  0.204E-03  0.884E-03  0.884E-03  0.204E-03  0.884E-03
   8.987  0.237E-02  0.806E-04  0.738E-03  0.738E-03  0.806E-04  0.738E-03
   9.087  0.205E-02  0.450E-04  0.652E-03  0.652E-03  0.450E-04  0.652E-03
   9.187  0.228E-02  0.518E-04  0.725E-03  0.725E-03  0.518E-04  0.725E-03
   9.287  0.387E-02  0.127E-03  0.120E-02  0.120E-02  0.127E-03  0.120E-02
   9.387  0.524E-02  0.236E-03  0.159E-02  0.159E-02  0.236E-03  0.159E-02
   9.487  0.550E-02  0.362E-03  0.159E-02  0.159E-02  0.362E-03  0.159E-02
   9.587  0.592E-02  0.492E-03  0.164E-02  0.164E-02  0.492E-03  0.164E-02
   9.687  0.505E-02  0.499E-03  0.135E-02  0.135E-02  0.499E-03  0.135E-02
   9.787  0.336E-02  0.391E-03  0.859E-03  0.859E-03  0.391E-03  0.859E-03
   9.887  0.197E-02  0.279E-03  0.471E-03  0.471E-03  0.279E-03  0.471E-03
   9.987  0.932E-03  0.173E-03  0.196E-03  0.196E-03  0.173E-03  0.196E-03
  10.087  0.309E-03  0.717E-04  0.551E-04  0.551E-04  0.717E-04  0.551E-04
  10.187  0.590E-04  0.161E-04  0.893E-05  0.893E-05  0.161E-04  0.893E-05
  10.287  0.539E-05  0.164E-05  0.707E-06  0.707E-06  0.164E-05  0.707E-06
  10.387  0.203E-06  0.652E-07  0.242E-07  0.242E-07  0.652E-07  0.242E-07
  10.487  0.285E-08  0.937E-09  0.324E-09  0.324E-09  0.937E-09  0.324E-09
