# E (eV)   ldos(E)   pdos(E)    pdos(E)    pdos(E)   
  -6.613  0.359E-08  0.120E-08  0.120E-08  0.120E-08
  -6.513  0.294E-06  0.981E-07  0.981E-07  0.981E-07
  -6.413  0.928E-05  0.309E-05  0.309E-05  0.309E-05
  -6.313  0.119E-03  0.398E-04  0.398E-04  0.398E-04
  -6.213  0.693E-03  0.231E-03  0.231E-03  0.231E-03
  -6.113  0.216E-02  0.721E-03  0.721E-03  0.721E-03
  -6.013  0.471E-02  0.157E-02  0.157E-02  0.157E-02
  -5.913  0.831E-02  0.277E-02  0.277E-02  0.277E-02
  -5.813  0.971E-02  0.324E-02  0.324E-02  0.324E-02
  -5.713  0.568E-02  0.189E-02  0.189E-02  0.189E-02
  -5.613  0.144E-02  0.480E-03  0.480E-03  0.480E-03
  -5.513  0.147E-03  0.491E-04  0.491E-04  0.491E-04
  -5.413  0.583E-05  0.194E-05  0.194E-05  0.194E-05
  -5.313  0.863E-07  0.288E-07  0.288E-07  0.288E-07
  -5.213  0.466E-09  0.155E-09  0.155E-09  0.155E-09
  -5.113  0.900E-12  0.300E-12  0.300E-12  0.300E-12
  -5.013  0.556E-15  0.185E-15  0.185E-15  0.185E-15
  -4.913  0.000E+00  0.000E+00  0.000E+00  0.000E+00
  -4.813  0.000E+00  0.000E+00  0.000E+00  0.000E+00
  -4.713  0.000E+00  0.000E+00  0.000E+00  0.000E+00
  -4.613  0.000E+00  0.000E+00  0.000E+00  0.000E+00
  -4.513  0.000E+00  0.000E+00  0.000E+00  0.000E+00
  -4.413  0.000E+00  0.000E+00  0.000E+00  0.000E+00
  -4.313  0.000E+00  0.000E+00  0.000E+00  0.000E+00
  -4.213  0.000E+00  0.000E+00  0.000E+00  0.000E+00
  -4.113  0.000E+00  0.000E+00  0.000E+00  0.000E+00
  -4.013  0.276E-12  0.918E-13  0.918E-13  0.918E-13
  -3.913  0.319E-09  0.106E-09  0.106E-09  0.106E-09
  -3.813  0.130E-06  0.433E-07  0.433E-07  0.433E-07
  -3.713  0.191E-04  0.636E-05  0.636E-05  0.636E-05
  -3.613  0.103E-02  0.342E-03  0.342E-03  0.342E-03
  -3.513  0.205E-01  0.683E-02  0.683E-02  0.683E-02
  -3.413  0.154E+00  0.514E-01  0.514E-01  0.514E-01
  -3.313  0.448E+00  0.149E+00  0.149E+00  0.149E+00
  -3.213  0.525E+00  0.175E+00  0.175E+00  0.175E+00
  -3.113  0.281E+00  0.938E-01  0.938E-01  0.938E-01
  -3.013  0.102E+00  0.341E-01  0.341E-01  0.341E-01
  -2.913  0.558E-01  0.186E-01  0.186E-01  0.186E-01
  -2.813  0.476E-01  0.159E-01  0.159E-01  0.159E-01
  -2.713  0.370E-01  0.123E-01  0.123E-01  0.123E-01
  -2.613  0.198E-01  0.659E-02  0.659E-02  0.659E-02
  -2.513  0.588E-02  0.196E-02  0.196E-02  0.196E-02
  -2.413  0.819E-03  0.273E-03  0.273E-03  0.273E-03
  -2.313  0.473E-04  0.158E-04  0.158E-04  0.158E-04
  -2.213  0.106E-05  0.354E-06  0.354E-06  0.354E-06
  -2.113  0.884E-08  0.295E-08  0.295E-08  0.295E-08
  -2.013  0.267E-10  0.891E-11  0.891E-11  0.891E-11
  -1.913  0.288E-13  0.960E-14  0.960E-14  0.960E-14
  -1.813  0.268E-21  0.893E-22  0.893E-22  0.893E-22
  -1.713  0.000E+00  0.000E+00  0.000E+00  0.000E+00
  -1.613  0.000E+00  0.000E+00  0.000E+00  0.000E+00
  -1.513  0.000E+00  0.000E+00  0.000E+00  0.000E+00
  -1.413  0.000E+00  0.000E+00  0.000E+00  0.000E+00
  -1.313  0.000E+00  0.000E+00  0.000E+00  0.000E+00
  -1.213  0.000E+00  0.000E+00  0.000E+00  0.000E+00
  -1.113  0.000E+00  0.000E+00  0.000E+00  0.000E+00
  -1.013  0.000E+00  0.000E+00  0.000E+00  0.000E+00
  -0.913  0.000E+00  0.000E+00  0.000E+00  0.000E+00
  -0.813  0.000E+00  0.000E+00  0.000E+00  0.000E+00
  -0.713  0.000E+00  0.000E+00  0.000E+00  0.000E+00
  -0.613  0.000E+00  0.000E+00  0.000E+00  0.000E+00
  -0.513  0.000E+00  0.000E+00  0.000E+00  0.000E+00
  -0.413  0.000E+00  0.000E+00  0.000E+00  0.000E+00
  -0.313  0.000E+00  0.000E+00  0.000E+00  0.000E+00
  -0.213  0.000E+00  0.000E+00  0.000E+00  0.000E+00
  -0.113  0.679E-12  0.226E-12  0.226E-12  0.226E-12
  -0.013  0.538E-09  0.179E-09  0.179E-09  0.179E-09
   0.087  0.155E-06  0.516E-07  0.516E-07  0.516E-07
   0.187  0.169E-04  0.562E-05  0.562E-05  0.562E-05
   0.287  0.726E-03  0.242E-03  0.242E-03  0.242E-03
   0.387  0.131E-01  0.437E-02  0.437E-02  0.437E-02
   0.487  0.111E+00  0.368E-01  0.368E-01  0.368E-01
   0.587  0.506E+00  0.169E+00  0.169E+00  0.169E+00
   0.687  0.133E+01  0.445E+00  0.445E+00  0.445E+00
   0.787  0.186E+01  0.621E+00  0.621E+00  0.621E+00
   0.887  0.142E+01  0.474E+00  0.474E+00  0.474E+00
   0.987  0.943E+00  0.314E+00  0.314E+00  0.314E+00
   1.087  0.694E+00  0.231E+00  0.231E+00  0.231E+00
   1.187  0.439E+00  0.146E+00  0.146E+00  0.146E+00
   1.287  0.407E+00  0.136E+00  0.136E+00  0.136E+00
   1.387  0.397E+00  0.132E+00  0.132E+00  0.132E+00
   1.487  0.294E+00  0.981E-01  0.981E-01  0.981E-01
   1.587  0.258E+00  0.859E-01  0.859E-01  0.859E-01
   1.687  0.270E+00  0.900E-01  0.900E-01  0.900E-01
   1.787  0.214E+00  0.714E-01  0.714E-01  0.714E-01
   1.887  0.150E+00  0.501E-01  0.501E-01  0.501E-01
   1.987  0.157E+00  0.524E-01  0.524E-01  0.524E-01
   2.087  0.207E+00  0.690E-01  0.690E-01  0.690E-01
   2.187  0.204E+00  0.682E-01  0.682E-01  0.682E-01
   2.287  0.272E+00  0.906E-01  0.906E-01  0.906E-01
   2.387  0.587E+00  0.196E+00  0.196E+00  0.196E+00
   2.487  0.103E+01  0.342E+00  0.342E+00  0.342E+00
   2.587  0.117E+01  0.390E+00  0.390E+00  0.390E+00
   2.687  0.111E+01  0.369E+00  0.369E+00  0.369E+00
   2.787  0.117E+01  0.390E+00  0.390E+00  0.390E+00
   2.887  0.126E+01  0.420E+00  0.420E+00  0.420E+00
   2.987  0.137E+01  0.457E+00  0.457E+00  0.457E+00
   3.087  0.156E+01  0.520E+00  0.520E+00  0.520E+00
   3.187  0.168E+01  0.560E+00  0.560E+00  0.560E+00
   3.287  0.172E+01  0.574E+00  0.574E+00  0.574E+00
   3.387  0.176E+01  0.586E+00  0.586E+00  0.586E+00
   3.487  0.165E+01  0.550E+00  0.550E+00  0.550E+00
   3.587  0.162E+01  0.540E+00  0.540E+00  0.540E+00
   3.687  0.172E+01  0.574E+00  0.574E+00  0.574E+00
   3.787  0.178E+01  0.593E+00  0.593E+00  0.593E+00
   3.887  0.167E+01  0.555E+00  0.555E+00  0.555E+00
   3.987  0.161E+01  0.535E+00  0.535E+00  0.535E+00
   4.087  0.158E+01  0.527E+00  0.527E+00  0.527E+00
   4.187  0.127E+01  0.422E+00  0.422E+00  0.422E+00
   4.287  0.952E+00  0.317E+00  0.317E+00  0.317E+00
   4.387  0.830E+00  0.277E+00  0.277E+00  0.277E+00
   4.487  0.655E+00  0.218E+00  0.218E+00  0.218E+00
   4.587  0.504E+00  0.168E+00  0.168E+00  0.168E+00
   4.687  0.368E+00  0.123E+00  0.123E+00  0.123E+00
   4.787  0.195E+00  0.652E-01  0.652E-01  0.652E-01
   4.887  0.666E-01  0.222E-01  0.222E-01  0.222E-01
   4.987  0.118E-01  0.392E-02  0.392E-02  0.392E-02
   5.087  0.892E-03  0.297E-03  0.297E-03  0.297E-03
   5.187  0.263E-04  0.876E-05  0.876E-05  0.876E-05
   5.287  0.287E-06  0.955E-07  0.955E-07  0.955E-07
   5.387  0.116E-08  0.388E-09  0.388E-09  0.388E-09
   5.487  0.218E-09  0.727E-10  0.727E-10  0.727E-10
   5.587  0.314E-07  0.105E-07  0.105E-07  0.105E-07
   5.687  0.310E-05  0.103E-05  0.103E-05  0.103E-05
   5.787  0.104E-03  0.347E-04  0.347E-04  0.347E-04
   5.887  0.119E-02  0.397E-03  0.397E-03  0.397E-03
   5.987  0.468E-02  0.156E-02  0.156E-02  0.156E-02
   6.087  0.728E-02  0.243E-02  0.243E-02  0.243E-02
   6.187  0.977E-02  0.326E-02  0.326E-02  0.326E-02
   6.287  0.159E-01  0.529E-02  0.529E-02  0.529E-02
   6.387  0.152E-01  0.507E-02  0.507E-02  0.507E-02
   6.487  0.844E-02  0.281E-02  0.281E-02  0.281E-02
   6.587  0.799E-02  0.266E-02  0.266E-02  0.266E-02
   6.687  0.337E-01  0.112E-01  0.112E-01  0.112E-01
   6.787  0.946E-01  0.315E-01  0.315E-01  0.315E-01
   6.887  0.122E+00  0.406E-01  0.406E-01  0.406E-01
   6.987  0.851E-01  0.284E-01  0.284E-01  0.284E-01
   7.087  0.707E-01  0.236E-01  0.236E-01  0.236E-01
   7.187  0.127E+00  0.422E-01  0.422E-01  0.422E-01
   7.287  0.192E+00  0.638E-01  0.638E-01  0.638E-01
   7.387  0.200E+00  0.665E-01  0.665E-01  0.665E-01
   7.487  0.208E+00  0.695E-01  0.695E-01  0.695E-01
   7.587  0.346E+00  0.115E+00  0.115E+00  0.115E+00
   7.687  0.504E+00  0.168E+00  0.168E+00  0.168E+00
   7.787  0.545E+00  0.182E+00  0.182E+00  0.182E+00
   7.887  0.540E+00  0.180E+00  0.180E+00  0.180E+00
   7.987  0.475E+00  0.158E+00  0.158E+00  0.158E+00
   8.087  0.385E+00  0.128E+00  0.128E+00  0.128E+00
   8.187  0.336E+00  0.112E+00  0.112E+00  0.112E+00
   8.287  0.319E+00  0.106E+00  0.106E+00  0.106E+00
   8.387  0.228E+00  0.759E-01  0.759E-01  0.759E-01
   8.487  0.140E+00  0.467E-01  0.467E-01  0.467E-01
   8.587  0.158E+00  0.526E-01  0.526E-01  0.526E-01
   8.687  0.217E+00  0.725E-01  0.725E-01  0.725E-01
   8.787  0.207E+00  0.691E-01  0.691E-01  0.691E-01
   8.887  0.144E+00  0.481E-01  0.481E-01  0.481E-01
   8.987  0.925E-01  0.308E-01  0.308E-01  0.308E-01
   9.087  0.711E-01  0.237E-01  0.237E-01  0.237E-01
   9.187  0.920E-01  0.307E-01  0.307E-01  0.307E-01
   9.287  0.183E+00  0.610E-01  0.610E-01  0.610E-01
   9.387  0.232E+00  0.773E-01  0.773E-01  0.773E-01
   9.487  0.217E+00  0.724E-01  0.724E-01  0.724E-01
   9.587  0.218E+00  0.727E-01  0.727E-01  0.727E-01
   9.687  0.184E+00  0.613E-01  0.613E-01  0.613E-01
   9.787  0.136E+00  0.454E-01  0.454E-01  0.454E-01
   9.887  0.916E-01  0.305E-01  0.305E-01  0.305E-01
   9.987  0.498E-01  0.166E-01  0.166E-01  0.166E-01
  10.087  0.207E-01  0.690E-02  0.690E-02  0.690E-02
  10.187  0.493E-02  0.164E-02  0.164E-02  0.164E-02
  10.287  0.517E-03  0.172E-03  0.172E-03  0.172E-03
  10.387  0.208E-04  0.694E-05  0.694E-05  0.694E-05
  10.487  0.301E-06  0.100E-06  0.100E-06  0.100E-06
